# E (eV)  dos(E)    pdos(E)
-10.000  0.112E+01  0.110E+01
 -9.900  0.851E+00  0.839E+00
 -9.800  0.110E+01  0.109E+01
 -9.700  0.148E+01  0.146E+01
 -9.600  0.229E+01  0.225E+01
 -9.500  0.272E+01  0.267E+01
 -9.400  0.229E+01  0.225E+01
 -9.300  0.189E+01  0.186E+01
 -9.200  0.139E+01  0.137E+01
 -9.100  0.103E+01  0.101E+01
 -9.000  0.129E+01  0.127E+01
 -8.900  0.130E+01  0.128E+01
 -8.800  0.935E+00  0.922E+00
 -8.700  0.107E+01  0.106E+01
 -8.600  0.129E+01  0.128E+01
 -8.500  0.958E+00  0.947E+00
 -8.400  0.105E+01  0.104E+01
 -8.300  0.127E+01  0.126E+01
 -8.200  0.124E+01  0.123E+01
 -8.100  0.132E+01  0.131E+01
 -8.000  0.136E+01  0.135E+01
 -7.900  0.115E+01  0.114E+01
 -7.800  0.659E+00  0.653E+00
 -7.700  0.709E+00  0.703E+00
 -7.600  0.163E+01  0.162E+01
 -7.500  0.204E+01  0.202E+01
 -7.400  0.175E+01  0.174E+01
 -7.300  0.167E+01  0.166E+01
 -7.200  0.146E+01  0.145E+01
 -7.100  0.125E+01  0.124E+01
 -7.000  0.129E+01  0.128E+01
 -6.900  0.129E+01  0.129E+01
 -6.800  0.127E+01  0.126E+01
 -6.700  0.134E+01  0.133E+01
 -6.600  0.158E+01  0.158E+01
 -6.500  0.166E+01  0.165E+01
 -6.400  0.115E+01  0.115E+01
 -6.300  0.643E+00  0.640E+00
 -6.200  0.366E+00  0.365E+00
 -6.100  0.386E+00  0.384E+00
 -6.000  0.392E+00  0.390E+00
 -5.900  0.285E+00  0.284E+00
 -5.800  0.394E+00  0.392E+00
 -5.700  0.348E+00  0.346E+00
 -5.600  0.248E+00  0.247E+00
 -5.500  0.390E+00  0.388E+00
 -5.400  0.365E+00  0.363E+00
 -5.300  0.572E+00  0.566E+00
 -5.200  0.199E+01  0.197E+01
 -5.100  0.331E+01  0.327E+01
 -5.000  0.323E+01  0.319E+01
 -4.900  0.402E+01  0.397E+01
 -4.800  0.497E+01  0.491E+01
 -4.700  0.447E+01  0.441E+01
 -4.600  0.297E+01  0.293E+01
 -4.500  0.114E+01  0.113E+01
 -4.400  0.200E+00  0.198E+00
 -4.300  0.142E-01  0.140E-01
 -4.200  0.379E-03  0.375E-03
 -4.100  0.370E-05  0.366E-05
